#  E (eV)   dos(E)     Int dos(E) EFermi =   6.852 eV
 -10.000  0.0000E+00  0.0000E+00
  -9.950  0.0000E+00  0.0000E+00
  -9.900  0.0000E+00  0.0000E+00
  -9.850  0.0000E+00  0.0000E+00
  -9.800  0.0000E+00  0.0000E+00
  -9.750  0.0000E+00  0.0000E+00
  -9.700  0.0000E+00  0.0000E+00
  -9.650  0.0000E+00  0.0000E+00
  -9.600  0.0000E+00  0.0000E+00
  -9.550  0.0000E+00  0.0000E+00
  -9.500  0.0000E+00  0.0000E+00
  -9.450  0.0000E+00  0.0000E+00
  -9.400  0.0000E+00  0.0000E+00
  -9.350  0.0000E+00  0.0000E+00
  -9.300  0.0000E+00  0.0000E+00
  -9.250  0.0000E+00  0.0000E+00
  -9.200  0.0000E+00  0.0000E+00
  -9.150  0.0000E+00  0.0000E+00
  -9.100  0.0000E+00  0.0000E+00
  -9.050  0.0000E+00  0.0000E+00
  -9.000  0.0000E+00  0.0000E+00
  -8.950  0.0000E+00  0.0000E+00
  -8.900  0.0000E+00  0.0000E+00
  -8.850  0.0000E+00  0.0000E+00
  -8.800  0.0000E+00  0.0000E+00
  -8.750  0.0000E+00  0.0000E+00
  -8.700  0.0000E+00  0.0000E+00
  -8.650  0.0000E+00  0.0000E+00
  -8.600  0.0000E+00  0.0000E+00
  -8.550  0.0000E+00  0.0000E+00
  -8.500  0.0000E+00  0.0000E+00
  -8.450  0.0000E+00  0.0000E+00
  -8.400  0.0000E+00  0.0000E+00
  -8.350  0.0000E+00  0.0000E+00
  -8.300  0.0000E+00  0.0000E+00
  -8.250  0.0000E+00  0.0000E+00
  -8.200  0.0000E+00  0.0000E+00
  -8.150  0.0000E+00  0.0000E+00
  -8.100  0.0000E+00  0.0000E+00
  -8.050  0.0000E+00  0.0000E+00
  -8.000  0.0000E+00  0.0000E+00
  -7.950  0.0000E+00  0.0000E+00
  -7.900  0.0000E+00  0.0000E+00
  -7.850  0.0000E+00  0.0000E+00
  -7.800  0.0000E+00  0.0000E+00
  -7.750  0.0000E+00  0.0000E+00
  -7.700  0.0000E+00  0.0000E+00
  -7.650  0.0000E+00  0.0000E+00
  -7.600  0.0000E+00  0.0000E+00
  -7.550  0.0000E+00  0.0000E+00
  -7.500  0.0000E+00  0.0000E+00
  -7.450  0.0000E+00  0.0000E+00
  -7.400  0.0000E+00  0.0000E+00
  -7.350  0.0000E+00  0.0000E+00
  -7.300  0.0000E+00  0.0000E+00
  -7.250  0.0000E+00  0.0000E+00
  -7.200  0.0000E+00  0.0000E+00
  -7.150  0.0000E+00  0.0000E+00
  -7.100  0.0000E+00  0.0000E+00
  -7.050  0.0000E+00  0.0000E+00
  -7.000  0.0000E+00  0.0000E+00
  -6.950  0.0000E+00  0.0000E+00
  -6.900  0.0000E+00  0.0000E+00
  -6.850  0.0000E+00  0.0000E+00
  -6.800  0.0000E+00  0.0000E+00
  -6.750  0.0000E+00  0.0000E+00
  -6.700  0.0000E+00  0.0000E+00
  -6.650  0.0000E+00  0.0000E+00
  -6.600  0.0000E+00  0.0000E+00
  -6.550  0.0000E+00  0.0000E+00
  -6.500  0.0000E+00  0.0000E+00
  -6.450  0.0000E+00  0.0000E+00
  -6.400  0.0000E+00  0.0000E+00
  -6.350  0.0000E+00  0.0000E+00
  -6.300  0.0000E+00  0.0000E+00
  -6.250  0.0000E+00  0.0000E+00
  -6.200  0.0000E+00  0.0000E+00
  -6.150  0.0000E+00  0.0000E+00
  -6.100  0.0000E+00  0.0000E+00
  -6.050  0.0000E+00  0.0000E+00
  -6.000  0.0000E+00  0.0000E+00
  -5.950  0.0000E+00  0.0000E+00
  -5.900  0.0000E+00  0.0000E+00
  -5.850  0.0000E+00  0.0000E+00
  -5.800  0.0000E+00  0.0000E+00
  -5.750  0.0000E+00  0.0000E+00
  -5.700  0.1322E-02  0.6610E-04
  -5.650  0.1793E-01  0.9628E-03
  -5.600  0.5358E-01  0.3642E-02
  -5.550  0.1083E+00  0.9055E-02
  -5.500  0.1592E+00  0.1702E-01
  -5.450  0.1425E+00  0.2414E-01
  -5.400  0.1570E+00  0.3199E-01
  -5.350  0.1735E+00  0.4067E-01
  -5.300  0.1908E+00  0.5021E-01
  -5.250  0.2087E+00  0.6064E-01
  -5.200  0.2274E+00  0.7201E-01
  -5.150  0.2463E+00  0.8433E-01
  -5.100  0.2612E+00  0.9739E-01
  -5.050  0.2723E+00  0.1110E+00
  -5.000  0.2797E+00  0.1250E+00
  -4.950  0.2839E+00  0.1392E+00
  -4.900  0.2891E+00  0.1536E+00
  -4.850  0.2999E+00  0.1686E+00
  -4.800  0.3114E+00  0.1842E+00
  -4.750  0.3231E+00  0.2004E+00
  -4.700  0.3351E+00  0.2171E+00
  -4.650  0.3473E+00  0.2345E+00
  -4.600  0.3599E+00  0.2525E+00
  -4.550  0.3731E+00  0.2711E+00
  -4.500  0.3865E+00  0.2904E+00
  -4.450  0.4003E+00  0.3105E+00
  -4.400  0.4054E+00  0.3307E+00
  -4.350  0.4061E+00  0.3510E+00
  -4.300  0.4141E+00  0.3717E+00
  -4.250  0.4246E+00  0.3930E+00
  -4.200  0.4359E+00  0.4148E+00
  -4.150  0.4480E+00  0.4372E+00
  -4.100  0.4608E+00  0.4602E+00
  -4.050  0.4684E+00  0.4836E+00
  -4.000  0.4733E+00  0.5073E+00
  -3.950  0.4819E+00  0.5314E+00
  -3.900  0.4954E+00  0.5562E+00
  -3.850  0.5091E+00  0.5816E+00
  -3.800  0.5249E+00  0.6079E+00
  -3.750  0.5412E+00  0.6349E+00
  -3.700  0.5588E+00  0.6629E+00
  -3.650  0.5778E+00  0.6917E+00
  -3.600  0.5980E+00  0.7216E+00
  -3.550  0.6122E+00  0.7522E+00
  -3.500  0.6275E+00  0.7836E+00
  -3.450  0.6686E+00  0.8171E+00
  -3.400  0.6506E+00  0.8496E+00
  -3.350  0.6557E+00  0.8824E+00
  -3.300  0.7420E+00  0.9195E+00
  -3.250  0.9296E+00  0.9659E+00
  -3.200  0.9483E+00  0.1013E+01
  -3.150  0.8422E+00  0.1055E+01
  -3.100  0.7914E+00  0.1095E+01
  -3.050  0.7831E+00  0.1134E+01
  -3.000  0.7790E+00  0.1173E+01
  -2.950  0.7732E+00  0.1212E+01
  -2.900  0.7628E+00  0.1250E+01
  -2.850  0.7517E+00  0.1288E+01
  -2.800  0.7437E+00  0.1325E+01
  -2.750  0.7247E+00  0.1361E+01
  -2.700  0.6847E+00  0.1395E+01
  -2.650  0.6709E+00  0.1429E+01
  -2.600  0.6662E+00  0.1462E+01
  -2.550  0.6504E+00  0.1495E+01
  -2.500  0.6402E+00  0.1527E+01
  -2.450  0.6286E+00  0.1558E+01
  -2.400  0.6197E+00  0.1589E+01
  -2.350  0.6067E+00  0.1619E+01
  -2.300  0.5904E+00  0.1649E+01
  -2.250  0.5698E+00  0.1677E+01
  -2.200  0.5458E+00  0.1705E+01
  -2.150  0.5167E+00  0.1730E+01
  -2.100  0.4946E+00  0.1755E+01
  -2.050  0.4918E+00  0.1780E+01
  -2.000  0.4980E+00  0.1805E+01
  -1.950  0.4999E+00  0.1830E+01
  -1.900  0.4522E+00  0.1852E+01
  -1.850  0.4174E+00  0.1873E+01
  -1.800  0.3928E+00  0.1893E+01
  -1.750  0.3638E+00  0.1911E+01
  -1.700  0.3297E+00  0.1927E+01
  -1.650  0.2942E+00  0.1942E+01
  -1.600  0.2601E+00  0.1955E+01
  -1.550  0.2264E+00  0.1966E+01
  -1.500  0.1931E+00  0.1976E+01
  -1.450  0.1627E+00  0.1984E+01
  -1.400  0.1384E+00  0.1991E+01
  -1.350  0.1195E+00  0.1997E+01
  -1.300  0.1111E+00  0.2003E+01
  -1.250  0.1167E+00  0.2009E+01
  -1.200  0.1302E+00  0.2015E+01
  -1.150  0.1533E+00  0.2023E+01
  -1.100  0.1842E+00  0.2032E+01
  -1.050  0.2173E+00  0.2043E+01
  -1.000  0.2512E+00  0.2055E+01
  -0.950  0.2856E+00  0.2070E+01
  -0.900  0.3214E+00  0.2086E+01
  -0.850  0.3552E+00  0.2103E+01
  -0.800  0.3836E+00  0.2123E+01
  -0.750  0.4113E+00  0.2143E+01
  -0.700  0.4461E+00  0.2166E+01
  -0.650  0.4886E+00  0.2190E+01
  -0.600  0.5541E+00  0.2218E+01
  -0.550  0.6116E+00  0.2248E+01
  -0.500  0.7507E+00  0.2286E+01
  -0.450  0.1016E+01  0.2337E+01
  -0.400  0.1436E+01  0.2408E+01
  -0.350  0.1806E+01  0.2499E+01
  -0.300  0.1619E+01  0.2580E+01
  -0.250  0.1330E+01  0.2646E+01
  -0.200  0.1034E+01  0.2698E+01
  -0.150  0.8701E+00  0.2741E+01
  -0.100  0.8231E+00  0.2783E+01
  -0.050  0.7939E+00  0.2822E+01
   0.000  0.7643E+00  0.2860E+01
   0.050  0.7282E+00  0.2897E+01
   0.100  0.6932E+00  0.2932E+01
   0.150  0.6596E+00  0.2964E+01
   0.200  0.6283E+00  0.2996E+01
   0.250  0.6004E+00  0.3026E+01
   0.300  0.5759E+00  0.3055E+01
   0.350  0.5544E+00  0.3082E+01
   0.400  0.5346E+00  0.3109E+01
   0.450  0.5162E+00  0.3135E+01
   0.500  0.5000E+00  0.3160E+01
   0.550  0.4830E+00  0.3184E+01
   0.600  0.4736E+00  0.3208E+01
   0.650  0.4701E+00  0.3231E+01
   0.700  0.4387E+00  0.3253E+01
   0.750  0.4207E+00  0.3274E+01
   0.800  0.4040E+00  0.3294E+01
   0.850  0.3894E+00  0.3314E+01
   0.900  0.3772E+00  0.3333E+01
   0.950  0.3673E+00  0.3351E+01
   1.000  0.3594E+00  0.3369E+01
   1.050  0.3531E+00  0.3387E+01
   1.100  0.3462E+00  0.3404E+01
   1.150  0.3374E+00  0.3421E+01
   1.200  0.3283E+00  0.3437E+01
   1.250  0.3207E+00  0.3453E+01
   1.300  0.3141E+00  0.3469E+01
   1.350  0.3077E+00  0.3485E+01
   1.400  0.3016E+00  0.3500E+01
   1.450  0.2958E+00  0.3514E+01
   1.500  0.2901E+00  0.3529E+01
   1.550  0.2844E+00  0.3543E+01
   1.600  0.2783E+00  0.3557E+01
   1.650  0.2719E+00  0.3571E+01
   1.700  0.2654E+00  0.3584E+01
   1.750  0.2580E+00  0.3597E+01
   1.800  0.2509E+00  0.3609E+01
   1.850  0.2436E+00  0.3622E+01
   1.900  0.2365E+00  0.3633E+01
   1.950  0.2375E+00  0.3645E+01
   2.000  0.2720E+00  0.3659E+01
   2.050  0.4148E+00  0.3680E+01
   2.100  0.5642E+00  0.3708E+01
   2.150  0.7239E+00  0.3744E+01
   2.200  0.9508E+00  0.3792E+01
   2.250  0.1160E+01  0.3850E+01
   2.300  0.1190E+01  0.3909E+01
   2.350  0.1142E+01  0.3966E+01
   2.400  0.1098E+01  0.4021E+01
   2.450  0.1063E+01  0.4074E+01
   2.500  0.1037E+01  0.4126E+01
   2.550  0.1024E+01  0.4177E+01
   2.600  0.1021E+01  0.4228E+01
   2.650  0.1019E+01  0.4279E+01
   2.700  0.1018E+01  0.4330E+01
   2.750  0.1019E+01  0.4381E+01
   2.800  0.1027E+01  0.4433E+01
   2.850  0.1042E+01  0.4485E+01
   2.900  0.1066E+01  0.4538E+01
   2.950  0.1050E+01  0.4590E+01
   3.000  0.1030E+01  0.4642E+01
   3.050  0.1052E+01  0.4694E+01
   3.100  0.1086E+01  0.4749E+01
   3.150  0.1097E+01  0.4804E+01
   3.200  0.1112E+01  0.4859E+01
   3.250  0.1130E+01  0.4916E+01
   3.300  0.1148E+01  0.4973E+01
   3.350  0.1175E+01  0.5032E+01
   3.400  0.1200E+01  0.5092E+01
   3.450  0.1217E+01  0.5153E+01
   3.500  0.1240E+01  0.5215E+01
   3.550  0.1272E+01  0.5278E+01
   3.600  0.1330E+01  0.5345E+01
   3.650  0.1370E+01  0.5413E+01
   3.700  0.1456E+01  0.5486E+01
   3.750  0.1688E+01  0.5571E+01
   3.800  0.1478E+01  0.5644E+01
   3.850  0.1453E+01  0.5717E+01
   3.900  0.1403E+01  0.5787E+01
   3.950  0.1381E+01  0.5856E+01
   4.000  0.1363E+01  0.5924E+01
   4.050  0.1349E+01  0.5992E+01
   4.100  0.1321E+01  0.6058E+01
   4.150  0.1294E+01  0.6123E+01
   4.200  0.1260E+01  0.6186E+01
   4.250  0.1255E+01  0.6248E+01
   4.300  0.1253E+01  0.6311E+01
   4.350  0.1256E+01  0.6374E+01
   4.400  0.1272E+01  0.6437E+01
   4.450  0.1287E+01  0.6502E+01
   4.500  0.1295E+01  0.6566E+01
   4.550  0.1294E+01  0.6631E+01
   4.600  0.1289E+01  0.6696E+01
   4.650  0.1272E+01  0.6759E+01
   4.700  0.1259E+01  0.6822E+01
   4.750  0.1245E+01  0.6884E+01
   4.800  0.1229E+01  0.6946E+01
   4.850  0.1210E+01  0.7006E+01
   4.900  0.1195E+01  0.7066E+01
   4.950  0.1184E+01  0.7125E+01
   5.000  0.1179E+01  0.7184E+01
   5.050  0.1196E+01  0.7244E+01
   5.100  0.1197E+01  0.7304E+01
   5.150  0.1180E+01  0.7363E+01
   5.200  0.1156E+01  0.7421E+01
   5.250  0.1130E+01  0.7477E+01
   5.300  0.1110E+01  0.7533E+01
   5.350  0.8952E+00  0.7578E+01
   5.400  0.7727E+00  0.7616E+01
   5.450  0.7217E+00  0.7652E+01
   5.500  0.6724E+00  0.7686E+01
   5.550  0.6225E+00  0.7717E+01
   5.600  0.5749E+00  0.7746E+01
   5.650  0.5282E+00  0.7772E+01
   5.700  0.4822E+00  0.7796E+01
   5.750  0.4357E+00  0.7818E+01
   5.800  0.4050E+00  0.7838E+01
   5.850  0.3750E+00  0.7857E+01
   5.900  0.3441E+00  0.7874E+01
   5.950  0.3162E+00  0.7890E+01
   6.000  0.2907E+00  0.7905E+01
   6.050  0.2673E+00  0.7918E+01
   6.100  0.2460E+00  0.7930E+01
   6.150  0.2268E+00  0.7942E+01
   6.200  0.2097E+00  0.7952E+01
   6.250  0.1946E+00  0.7962E+01
   6.300  0.1863E+00  0.7971E+01
   6.350  0.1037E+00  0.7976E+01
   6.400  0.7660E-01  0.7980E+01
   6.450  0.4544E-01  0.7982E+01
   6.500  0.2247E-01  0.7984E+01
   6.550  0.7674E-02  0.7984E+01
   6.600  0.1062E-02  0.7984E+01
   6.650  0.4932E-03  0.7984E+01
   6.700  0.2870E-03  0.7984E+01
   6.750  0.1362E-03  0.7984E+01
   6.800  0.4099E-04  0.7984E+01
   6.850  0.1712E-05  0.7984E+01
   6.900  0.5582E-04  0.7984E+01
   6.950  0.3087E-03  0.7984E+01
   7.000  0.2084E-02  0.7984E+01
   7.050  0.2001E-01  0.7985E+01
   7.100  0.1155E+00  0.7991E+01
   7.150  0.2971E+00  0.8006E+01
   7.200  0.1177E+00  0.8012E+01
   7.250  0.1453E+00  0.8019E+01
   7.300  0.1764E+00  0.8028E+01
   7.350  0.2000E+00  0.8038E+01
   7.400  0.2249E+00  0.8049E+01
   7.450  0.2535E+00  0.8062E+01
   7.500  0.2868E+00  0.8076E+01
   7.550  0.3261E+00  0.8092E+01
   7.600  0.3568E+00  0.8110E+01
   7.650  0.3696E+00  0.8129E+01
   7.700  0.3920E+00  0.8148E+01
   7.750  0.4195E+00  0.8169E+01
   7.800  0.4490E+00  0.8192E+01
   7.850  0.4757E+00  0.8215E+01
   7.900  0.4993E+00  0.8240E+01
   7.950  0.5202E+00  0.8266E+01
   8.000  0.5385E+00  0.8293E+01
   8.050  0.5575E+00  0.8321E+01
   8.100  0.5795E+00  0.8350E+01
   8.150  0.6070E+00  0.8381E+01
   8.200  0.6461E+00  0.8413E+01
   8.250  0.7248E+00  0.8449E+01
   8.300  0.7544E+00  0.8487E+01
   8.350  0.8225E+00  0.8528E+01
   8.400  0.8870E+00  0.8572E+01
   8.450  0.9580E+00  0.8620E+01
   8.500  0.1043E+01  0.8672E+01
   8.550  0.1135E+01  0.8729E+01
   8.600  0.1220E+01  0.8790E+01
   8.650  0.1336E+01  0.8857E+01
   8.700  0.1503E+01  0.8932E+01
   8.750  0.1664E+01  0.9015E+01
   8.800  0.1671E+01  0.9099E+01
   8.850  0.1644E+01  0.9181E+01
   8.900  0.1651E+01  0.9264E+01
   8.950  0.1656E+01  0.9346E+01
   9.000  0.1647E+01  0.9429E+01
   9.050  0.1687E+01  0.9513E+01
   9.100  0.1781E+01  0.9602E+01
   9.150  0.1760E+01  0.9690E+01
   9.200  0.1752E+01  0.9778E+01
   9.250  0.1715E+01  0.9863E+01
   9.300  0.1639E+01  0.9945E+01
   9.350  0.1522E+01  0.1002E+02
   9.400  0.1384E+01  0.1009E+02
   9.450  0.1201E+01  0.1015E+02
   9.500  0.1002E+01  0.1020E+02
   9.550  0.7597E+00  0.1024E+02
   9.600  0.6826E+00  0.1027E+02
   9.650  0.6541E+00  0.1031E+02
   9.700  0.6779E+00  0.1034E+02
   9.750  0.7458E+00  0.1038E+02
   9.800  0.8526E+00  0.1042E+02
   9.850  0.1092E+01  0.1047E+02
   9.900  0.1378E+01  0.1054E+02
   9.950  0.1623E+01  0.1062E+02
  10.000  0.1831E+01  0.1072E+02
  10.050  0.2239E+01  0.1083E+02
  10.100  0.2430E+01  0.1095E+02
  10.150  0.2853E+01  0.1109E+02
  10.200  0.2923E+01  0.1124E+02
  10.250  0.2134E+01  0.1134E+02
  10.300  0.2099E+01  0.1145E+02
  10.350  0.2054E+01  0.1155E+02
  10.400  0.1777E+01  0.1164E+02
  10.450  0.1506E+01  0.1172E+02
  10.500  0.1336E+01  0.1178E+02
  10.550  0.1248E+01  0.1185E+02
  10.600  0.1198E+01  0.1191E+02
  10.650  0.1171E+01  0.1196E+02
  10.700  0.1139E+01  0.1202E+02
  10.750  0.1107E+01  0.1208E+02
  10.800  0.1209E+01  0.1214E+02
  10.850  0.1186E+01  0.1220E+02
  10.900  0.1191E+01  0.1226E+02
  10.950  0.1224E+01  0.1232E+02
  11.000  0.1216E+01  0.1238E+02
  11.050  0.1098E+01  0.1243E+02
  11.100  0.9119E+00  0.1248E+02
  11.150  0.9112E+00  0.1252E+02
  11.200  0.9031E+00  0.1257E+02
  11.250  0.8941E+00  0.1261E+02
  11.300  0.8838E+00  0.1266E+02
  11.350  0.8703E+00  0.1270E+02
  11.400  0.8551E+00  0.1274E+02
  11.450  0.8418E+00  0.1279E+02
  11.500  0.8349E+00  0.1283E+02
  11.550  0.8333E+00  0.1287E+02
  11.600  0.9298E+00  0.1292E+02
  11.650  0.1286E+01  0.1298E+02
  11.700  0.1519E+01  0.1306E+02
  11.750  0.1575E+01  0.1314E+02
  11.800  0.1543E+01  0.1321E+02
  11.850  0.1409E+01  0.1328E+02
  11.900  0.1376E+01  0.1335E+02
  11.950  0.1344E+01  0.1342E+02
  12.000  0.1316E+01  0.1348E+02
  12.050  0.1290E+01  0.1355E+02
  12.100  0.1263E+01  0.1361E+02
  12.150  0.1234E+01  0.1367E+02
  12.200  0.1212E+01  0.1373E+02
  12.250  0.1197E+01  0.1379E+02
  12.300  0.1178E+01  0.1385E+02
  12.350  0.1158E+01  0.1391E+02
  12.400  0.1119E+01  0.1397E+02
  12.450  0.1030E+01  0.1402E+02
  12.500  0.9339E+00  0.1407E+02
  12.550  0.8644E+00  0.1411E+02
  12.600  0.8340E+00  0.1415E+02
  12.650  0.8204E+00  0.1419E+02
  12.700  0.8168E+00  0.1423E+02
  12.750  0.8141E+00  0.1427E+02
  12.800  0.7897E+00  0.1431E+02
  12.850  0.7389E+00  0.1435E+02
  12.900  0.7438E+00  0.1439E+02
  12.950  0.7569E+00  0.1442E+02
  13.000  0.7710E+00  0.1446E+02
  13.050  0.7852E+00  0.1450E+02
  13.100  0.7994E+00  0.1454E+02
  13.150  0.8138E+00  0.1458E+02
  13.200  0.8285E+00  0.1462E+02
  13.250  0.8435E+00  0.1467E+02
  13.300  0.8588E+00  0.1471E+02
  13.350  0.8744E+00  0.1475E+02
  13.400  0.8903E+00  0.1480E+02
  13.450  0.9065E+00  0.1484E+02
  13.500  0.9230E+00  0.1489E+02
  13.550  0.9446E+00  0.1494E+02
  13.600  0.9258E+00  0.1498E+02
  13.650  0.1073E+01  0.1504E+02
  13.700  0.1028E+01  0.1509E+02
  13.750  0.9874E+00  0.1514E+02
  13.800  0.9562E+00  0.1518E+02
  13.850  0.9238E+00  0.1523E+02
  13.900  0.8859E+00  0.1528E+02
  13.950  0.8348E+00  0.1532E+02
  14.000  0.7693E+00  0.1536E+02
  14.050  0.6952E+00  0.1539E+02
  14.100  0.6607E+00  0.1542E+02
  14.150  0.6326E+00  0.1545E+02
  14.200  0.6519E+00  0.1549E+02
  14.250  0.6794E+00  0.1552E+02
  14.300  0.7039E+00  0.1556E+02
  14.350  0.7091E+00  0.1559E+02
  14.400  0.6879E+00  0.1563E+02
  14.450  0.6474E+00  0.1566E+02
  14.500  0.5928E+00  0.1569E+02
  14.550  0.5369E+00  0.1572E+02
  14.600  0.4794E+00  0.1574E+02
  14.650  0.4143E+00  0.1576E+02
  14.700  0.3572E+00  0.1578E+02
  14.750  0.3260E+00  0.1579E+02
  14.800  0.3085E+00  0.1581E+02
  14.850  0.2957E+00  0.1582E+02
  14.900  0.2947E+00  0.1584E+02
  14.950  0.2873E+00  0.1585E+02
  15.000  0.2728E+00  0.1587E+02
  15.050  0.2489E+00  0.1588E+02
  15.100  0.2136E+00  0.1589E+02
  15.150  0.1665E+00  0.1590E+02
  15.200  0.1201E+00  0.1590E+02
  15.250  0.1053E+00  0.1591E+02
  15.300  0.1075E+00  0.1592E+02
  15.350  0.1035E+00  0.1592E+02
  15.400  0.9827E-01  0.1593E+02
  15.450  0.9318E-01  0.1593E+02
  15.500  0.8822E-01  0.1593E+02
  15.550  0.8339E-01  0.1594E+02
  15.600  0.7871E-01  0.1594E+02
  15.650  0.7415E-01  0.1595E+02
  15.700  0.6974E-01  0.1595E+02
  15.750  0.6545E-01  0.1595E+02
  15.800  0.6131E-01  0.1596E+02
  15.850  0.5730E-01  0.1596E+02
  15.900  0.5342E-01  0.1596E+02
  15.950  0.4968E-01  0.1596E+02
  16.000  0.4608E-01  0.1597E+02
  16.050  0.4261E-01  0.1597E+02
  16.100  0.3928E-01  0.1597E+02
  16.150  0.3609E-01  0.1597E+02
  16.200  0.3303E-01  0.1597E+02
  16.250  0.3010E-01  0.1598E+02
  16.300  0.2731E-01  0.1598E+02
  16.350  0.2466E-01  0.1598E+02
  16.400  0.2214E-01  0.1598E+02
  16.450  0.1976E-01  0.1598E+02
  16.500  0.1751E-01  0.1598E+02
  16.550  0.1540E-01  0.1598E+02
  16.600  0.1343E-01  0.1598E+02
  16.650  0.1159E-01  0.1598E+02
  16.700  0.9883E-02  0.1598E+02
  16.750  0.8315E-02  0.1598E+02
  16.800  0.6883E-02  0.1598E+02
  16.850  0.5586E-02  0.1598E+02
  16.900  0.4425E-02  0.1598E+02
  16.950  0.3400E-02  0.1598E+02
  17.000  0.2510E-02  0.1598E+02
  17.050  0.1756E-02  0.1599E+02
  17.100  0.1138E-02  0.1599E+02
  17.150  0.6554E-03  0.1599E+02
  17.200  0.3085E-03  0.1599E+02
  17.250  0.9733E-04  0.1599E+02
  17.300  0.1651E-04  0.1599E+02
  17.350  0.9267E-07  0.1599E+02
  17.400  0.0000E+00  0.1599E+02
  17.450  0.0000E+00  0.1599E+02
  17.500  0.0000E+00  0.1599E+02
  17.550  0.0000E+00  0.1599E+02
  17.600  0.0000E+00  0.1599E+02
  17.650  0.0000E+00  0.1599E+02
  17.700  0.0000E+00  0.1599E+02
  17.750  0.0000E+00  0.1599E+02
  17.800  0.0000E+00  0.1599E+02
  17.850  0.0000E+00  0.1599E+02
  17.900  0.0000E+00  0.1599E+02
  17.950  0.0000E+00  0.1599E+02
  18.000  0.0000E+00  0.1599E+02
  18.050  0.0000E+00  0.1599E+02
  18.100  0.0000E+00  0.1599E+02
  18.150  0.0000E+00  0.1599E+02
  18.200  0.0000E+00  0.1599E+02
  18.250  0.0000E+00  0.1599E+02
  18.300  0.0000E+00  0.1599E+02
  18.350  0.0000E+00  0.1599E+02
  18.400  0.0000E+00  0.1599E+02
  18.450  0.0000E+00  0.1599E+02
  18.500  0.0000E+00  0.1599E+02
  18.550  0.0000E+00  0.1599E+02
  18.600  0.0000E+00  0.1599E+02
  18.650  0.0000E+00  0.1599E+02
  18.700  0.0000E+00  0.1599E+02
  18.750  0.0000E+00  0.1599E+02
  18.800  0.0000E+00  0.1599E+02
  18.850  0.0000E+00  0.1599E+02
  18.900  0.0000E+00  0.1599E+02
  18.950  0.0000E+00  0.1599E+02
  19.000  0.0000E+00  0.1599E+02
  19.050  0.0000E+00  0.1599E+02
  19.100  0.0000E+00  0.1599E+02
  19.150  0.0000E+00  0.1599E+02
  19.200  0.0000E+00  0.1599E+02
  19.250  0.0000E+00  0.1599E+02
  19.300  0.0000E+00  0.1599E+02
  19.350  0.0000E+00  0.1599E+02
  19.400  0.0000E+00  0.1599E+02
  19.450  0.0000E+00  0.1599E+02
  19.500  0.0000E+00  0.1599E+02
  19.550  0.0000E+00  0.1599E+02
  19.600  0.0000E+00  0.1599E+02
  19.650  0.0000E+00  0.1599E+02
  19.700  0.0000E+00  0.1599E+02
  19.750  0.0000E+00  0.1599E+02
  19.800  0.0000E+00  0.1599E+02
  19.850  0.0000E+00  0.1599E+02
  19.900  0.0000E+00  0.1599E+02
  19.950  0.0000E+00  0.1599E+02
  20.000  0.0000E+00  0.1599E+02
